File: APS/data_viewing/WAXS-Control_3-3.csv
# #q, WAXS_int
1.46697,1059.91
1.47901,1073.08
1.49106,1092.71
1.5031,1101.3
1.51515,1113.23
1.52719,1122.4
1.53924,1131.43
1.55128,1135.62
1.56333,1151.15
1.57537,1156.04
1.58742,1160.51
1.59946,1169.53
1.61151,1175.21
1.62355,1181.6
1.6356,1187.41
1.64764,1196.85
1.65969,1193.79
1.67173,1197.45
1.68378,1207.3
1.69582,1203.34
1.70787,1206.9
1.71991,1208.85
1.73196,1211.24
1.744,1211.21
1.75605,1213
1.76809,1214.48
1.78014,1207.3
1.79218,1211.4
1.80423,1202.09
1.81628,1199.5
1.82832,1195.12
1.84037,1189.91
1.85241,1179.13
1.86446,1178.18
1.8765,1171.84
1.88855,1158.53
1.90059,1147.66
1.91264,1139.06
1.92468,1128.57
1.93673,1116.31
1.94877,1107.81
1.96082,1090.98
1.97286,1080.27
1.98491,1068.66
1.99695,1056.68
2.009,1044.72
2.02104,1031.16
2.03309,1019.44
2.04513,1007.12
2.05718,995.494
2.06922,981.606
2.08127,970.228
2.09331,955.38
2.10536,948.51
2.1174,930.383
2.12945,924.887
2.14149,909.93
2.15354,902.474
2.16558,891.321
2.17763,878.512
2.18967,871.384
2.20172,860.339
2.21376,849.951
2.22581,839.334
2.23785,832.037
2.2499,821.977
2.26195,813.805
2.27399,808.587
2.28604,799.606
2.29808,791.469
2.31013,782.592
2.32217,776.338
2.33422,770.054
2.34626,761.221
2.35831,757.928
2.37035,748.377
2.3824,745.656
2.39444,738.86
2.40649,730.612
2.41853,696.183
2.43058,728.716
2.44262,720.501
2.45467,714.657
2.46671,707.058
2.47876,702.067
2.4908,701.346
2.50285,693.916
2.51489,692.206
2.52694,688.421
2.53898,683.637
2.55103,680.819
2.56307,679.095
2.57512,679.722
2.58716,670.527
2.59921,669.179
2.61125,666.003
2.6233,664.138
2.63534,662.303
2.64739,660.187
2.65943,657.461
2.67148,651.437
2.68352,654.778
2.69557,654.66
2.70762,650.211
2.71966,649.356
2.73171,645.726
2.74375,642.728
2.7558,641.221
2.76784,640.672
2.77989,636.909
2.79193,633.28
2.80398,636.818
2.81602,632.457
2.82807,627.441
2.84011,626.001
2.85216,624.704
2.8642,621.063
2.87625,617.424
2.88829,615.071
2.90034,608.907
2.91238,606.247
2.92443,601.457
2.93647,596.948
2.94852,595.202
2.96056,588.091
2.97261,583.594
2.98465,579.766
2.9967,574.537
3.00874,569.886
3.02079,564.602
3.03283,556.697
3.04488,552.057
3.05692,546.855
3.06897,540.715
3.08101,531.876
3.09306,526.722
3.1051,519.408
3.11715,512.903
3.12919,507.041
3.14124,498.592
3.15329,492.094
3.16533,484.96
3.17738,480.135
3.18942,473.807
3.20147,468.979
3.21351,460.864
3.22556,456.798
3.2376,449.207
3.24965,442.56
3.26169,438.63
3.27374,430.635
3.28578,425.962
3.29783,420.672
3.30987,415.442
3.32192,409.369
3.33396,399.572
3.34601,394.265
3.35805,396.43
3.3701,393.038
3.38214,387.207
3.39419,382.128
3.40623,381.66
3.41828,374.926
3.43032,371.641
3.44237,368.979
3.45441,367.59
3.46646,362.993
3.4785,356.303
3.49055,356.368
3.50259,354.39
3.51464,353.183
3.52668,349.991
3.53873,348.072
3.55077,345.129
3.56282,344.171
3.57486,342.428
3.58691,338.999
3.59896,336.126
3.611,335.373
3.62305,333.586
3.63509,332.793
3.64714,331.063
3.65918,329.235
3.67123,328.398
3.68327,327.09
3.69532,325.335
3.70736,323.52
3.71941,323.065
3.73145,321.335
3.7435,319.535
3.75554,320.059
3.76759,318.856
3.77963,317.974
3.79168,317.678
3.80372,316.293
3.81577,315.404
3.82781,315.077
3.83986,313.709
3.8519,311.231
3.86395,311.6
3.87599,311.368
3.88804,310.464
3.90008,309.748
3.91213,308.35
3.92417,308.61
3.93622,307.322
3.94826,308.213
3.96031,306.371
3.97235,307.347
3.9844,305.12
3.99644,304.62
4.00849,304.602
4.02053,303.77
4.03258,302.832
4.04463,302.664
4.05667,302.117
4.06872,303.696
4.08076,300.595
4.09281,300.784
4.10485,300.498
4.1169,299.529
4.12894,300.407
4.14099,300.168
4.15303,299.233
4.16508,297.874
4.17712,296.923
4.18917,296.236
4.20121,296.47
4.21326,305.263
4.2253,293.062
4.23735,293.122
4.24939,292.924
4.26144,291.264
4.27348,291.8
4.28553,291.612
4.29757,290.194
4.30962,290.585
4.32166,290.196
4.33371,289.193
4.34575,292.876
4.3578,289.967
4.36984,287.486
4.38189,287.414
4.39393,287.274
4.40598,286.99
4.41802,286.426
4.43007,285.261
4.44211,284.9
4.45416,284.586
4.4662,285.629
4.47825,285.172
4.4903,283.265
4.50234,284.316
4.51439,283.597
4.52643,283.044
4.53848,281.062
4.55052,280.216
4.56257,280.681
4.57461,279.221
4.58666,278.522
4.5987,278.686
4.61075,277.842
4.62279,277.862
4.63484,277.405
4.64688,275.671
4.65893,275.17
4.67097,274.481
4.68302,273.681
4.69506,272.155
4.70711,271.26
4.71915,271.275
4.7312,271.057
4.74324,270.861
4.75529,269.631
4.76733,267.99
4.77938,269.155
4.79142,266.75
4.80347,266.57
4.81551,265.612
4.82756,266.063
4.8396,265.997
4.85165,264.225
4.86369,263.092
4.87574,263.167
4.88778,261.609
4.89983,262.113
4.91187,260.606
4.92392,261.063
4.93597,258.879
4.94801,258.546
4.96006,259.072
4.9721,257.452
4.98415,255.364
4.99619,255.032
5.00824,248.891
5.02028,241.61
5.02372,230.569