File: APS/data_viewing/WAXS-Control1-2.csv
# #q, WAXS_int
1.46697,1024.73
1.47901,1056.83
1.49106,1077.94
1.5031,1089.15
1.51515,1097.37
1.52719,1108.07
1.53924,1113.94
1.55128,1121.9
1.56333,1132.94
1.57537,1141.09
1.58742,1144.23
1.59946,1154.03
1.61151,1156.72
1.62355,1166.34
1.6356,1173.09
1.64764,1180.27
1.65969,1180.49
1.67173,1184.68
1.68378,1191.34
1.69582,1189.76
1.70787,1194.76
1.71991,1196.18
1.73196,1199.47
1.744,1203.22
1.75605,1198.69
1.76809,1201.68
1.78014,1196.92
1.79218,1199.32
1.80423,1192.98
1.81628,1190.42
1.82832,1186.39
1.84037,1183.21
1.85241,1172.89
1.86446,1172.61
1.8765,1163.52
1.88855,1153.37
1.90059,1144.32
1.91264,1133.82
1.92468,1123.38
1.93673,1111.23
1.94877,1104.35
1.96082,1085.74
1.97286,1075.32
1.98491,1065
1.99695,1055.02
2.009,1039.5
2.02104,1028.42
2.03309,1017.67
2.04513,1005.46
2.05718,993.092
2.06922,978.516
2.08127,967.918
2.09331,953.633
2.10536,945.597
2.1174,929.436
2.12945,923.256
2.14149,905.997
2.15354,899.346
2.16558,891.368
2.17763,878.839
2.18967,868.679
2.20172,859.713
2.21376,846.832
2.22581,837.359
2.23785,829.51
2.2499,821.476
2.26195,812.747
2.27399,807.571
2.28604,796.974
2.29808,789.907
2.31013,779.36
2.32217,774.984
2.33422,768.108
2.34626,762.589
2.35831,756.734
2.37035,748.308
2.3824,745.422
2.39444,738.405
2.40649,730.638
2.41853,693.532
2.43058,726.279
2.44262,718.787
2.45467,712.527
2.46671,706.32
2.47876,701.55
2.4908,698.464
2.50285,694.145
2.51489,689.789
2.52694,687.208
2.53898,683.303
2.55103,681.148
2.56307,677.75
2.57512,674.112
2.58716,670.076
2.59921,666.259
2.61125,664.477
2.6233,662.154
2.63534,663.235
2.64739,659.752
2.65943,656.178
2.67148,652.209
2.68352,653.122
2.69557,650.923
2.70762,647.388
2.71966,646.619
2.73171,644.165
2.74375,642.738
2.7558,639.496
2.76784,638.05
2.77989,634.671
2.79193,632.847
2.80398,635.565
2.81602,630.588
2.82807,625.94
2.84011,623.669
2.85216,623.895
2.8642,619.559
2.87625,616.603
2.88829,613.596
2.90034,610.233
2.91238,605.776
2.92443,598.75
2.93647,595.665
2.94852,596.467
2.96056,588.129
2.97261,583.767
2.98465,579.366
2.9967,573.609
3.00874,572.369
3.02079,564.632
3.03283,555.385
3.04488,552.708
3.05692,545.173
3.06897,538.515
3.08101,532.469
3.09306,526.507
3.1051,519.333
3.11715,511.797
3.12919,508.184
3.14124,499.986
3.15329,494.183
3.16533,486.553
3.17738,479.853
3.18942,473.076
3.20147,468.087
3.21351,461.087
3.22556,453.569
3.2376,447.779
3.24965,441.872
3.26169,436.265
3.27374,429.924
3.28578,424.431
3.29783,419.706
3.30987,413.385
3.32192,407.937
3.33396,400.07
3.34601,393.518
3.35805,394.318
3.3701,390.716
3.38214,384.904
3.39419,380.658
3.40623,379.022
3.41828,372.816
3.43032,370.203
3.44237,368.1
3.45441,364.205
3.46646,362.925
3.4785,356.533
3.49055,355.705
3.50259,352.755
3.51464,351.397
3.52668,348.233
3.53873,347.019
3.55077,342.13
3.56282,343.433
3.57486,339.016
3.58691,337.775
3.59896,335.584
3.611,335.32
3.62305,330.834
3.63509,329.724
3.64714,329.51
3.65918,327.557
3.67123,325.429
3.68327,325.517
3.69532,322.995
3.70736,321.512
3.71941,321.823
3.73145,320.075
3.7435,319.087
3.75554,318.331
3.76759,315.525
3.77963,314.778
3.79168,315.388
3.80372,313.857
3.81577,311.694
3.82781,312.378
3.83986,311.182
3.8519,312.087
3.86395,310.274
3.87599,309.527
3.88804,309.477
3.90008,307.942
3.91213,307.226
3.92417,306.234
3.93622,307.39
3.94826,303.967
3.96031,304.138
3.97235,305.25
3.9844,302.968
3.99644,302.307
4.00849,303.899
4.02053,303.08
4.03258,303.561
4.04463,301.764
4.05667,301.447
4.06872,301.038
4.08076,298.787
4.09281,298.321
4.10485,298.458
4.1169,298.115
4.12894,298.996
4.14099,297.078
4.15303,299.004
4.16508,296.509
4.17712,295.75
4.18917,294.81
4.20121,296.362
4.21326,303.532
4.2253,291.879
4.23735,291.336
4.24939,292.217
4.26144,290.3
4.27348,291.209
4.28553,291.403
4.29757,289.827
4.30962,290.657
4.32166,288.084
4.33371,289.167
4.34575,290.52
4.3578,287.002
4.36984,286.076
4.38189,287.853
4.39393,286.122
4.40598,286.666
4.41802,285.404
4.43007,285.6
4.44211,282.874
4.45416,282.241
4.4662,285.526
4.47825,282.667
4.4903,282.809
4.50234,284.358
4.51439,281.303
4.52643,281.298
4.53848,280.377
4.55052,279.778
4.56257,278.745
4.57461,278.764
4.58666,278.145
4.5987,277.874
4.61075,276.501
4.62279,276.796
4.63484,276.078
4.64688,273.953
4.65893,272.924
4.67097,272.766
4.68302,272.312
4.69506,270.692
4.70711,271.057
4.71915,270.286
4.7312,270.335
4.74324,268.969
4.75529,269.194
4.76733,266.033
4.77938,267.14
4.79142,265.553
4.80347,265.791
4.81551,264.42
4.82756,263.753
4.8396,263.473
4.85165,261.797
4.86369,263.058
4.87574,260.041
4.88778,260.353
4.89983,260.125
4.91187,260.08
4.92392,259.253
4.93597,257.298
4.94801,256.92
4.96006,256.778
4.9721,255.487
4.98415,254.23
4.99619,254.903
5.00824,249.879
5.02028,242.231
5.02372,236.368