File: APS/data_viewing/WAXS-Precursor_background_noTEOS-1.csv
# #q, WAXS_int
1.46697,972.017
1.47901,1002.66
1.49106,1018.66
1.5031,1026.55
1.51515,1033.83
1.52719,1045.59
1.53924,1052.17
1.55128,1058.99
1.56333,1068.47
1.57537,1075.49
1.58742,1080.12
1.59946,1087.18
1.61151,1094.33
1.62355,1103.02
1.6356,1113.09
1.64764,1119.43
1.65969,1124.71
1.67173,1125.13
1.68378,1136.82
1.69582,1136.81
1.70787,1146.88
1.71991,1150.63
1.73196,1152.22
1.744,1158.4
1.75605,1159.92
1.76809,1162.41
1.78014,1165.23
1.79218,1172.09
1.80423,1166.73
1.81628,1168.69
1.82832,1165.92
1.84037,1165.33
1.85241,1158.79
1.86446,1159.28
1.8765,1153.7
1.88855,1149.46
1.90059,1140.83
1.91264,1137.72
1.92468,1126.4
1.93673,1117.39
1.94877,1110.53
1.96082,1097.93
1.97286,1084.41
1.98491,1075.27
1.99695,1066.78
2.009,1056.09
2.02104,1045.07
2.03309,1033.62
2.04513,1022.03
2.05718,1011.16
2.06922,994.109
2.08127,986.482
2.09331,974.929
2.10536,965.568
2.1174,948.457
2.12945,943.612
2.14149,928.881
2.15354,921.402
2.16558,909.818
2.17763,896.924
2.18967,888.009
2.20172,878.585
2.21376,867.011
2.22581,855.253
2.23785,848.647
2.2499,840.023
2.26195,830.174
2.27399,823.14
2.28604,814.564
2.29808,803.521
2.31013,797.111
2.32217,791.299
2.33422,784.752
2.34626,777.162
2.35831,767.329
2.37035,762.442
2.3824,757.741
2.39444,755.282
2.40649,743.428
2.41853,707.179
2.43058,743.475
2.44262,731.845
2.45467,725.462
2.46671,719.308
2.47876,715.191
2.4908,710.336
2.50285,708.523
2.51489,704.232
2.52694,700.293
2.53898,696.632
2.55103,692.213
2.56307,688.362
2.57512,684.703
2.58716,682.879
2.59921,676.914
2.61125,677.799
2.6233,674.043
2.63534,674.353
2.64739,668.986
2.65943,667.705
2.67148,666.08
2.68352,664.974
2.69557,662.575
2.70762,661.096
2.71966,657.166
2.73171,656.912
2.74375,656.212
2.7558,652.337
2.76784,651.046
2.77989,645.818
2.79193,645.61
2.80398,646.278
2.81602,643.399
2.82807,639.59
2.84011,638.426
2.85216,635.567
2.8642,633.247
2.87625,629.129
2.88829,629.199
2.90034,620.397
2.91238,619.879
2.92443,613.357
2.93647,608.887
2.94852,610.026
2.96056,600.851
2.97261,595.787
2.98465,592.988
2.9967,586.378
3.00874,581.332
3.02079,577.143
3.03283,568.413
3.04488,562.611
3.05692,556.189
3.06897,549.823
3.08101,543.078
3.09306,536.037
3.1051,529.146
3.11715,520.047
3.12919,514.43
3.14124,508.086
3.15329,499.521
3.16533,492.972
3.17738,488.326
3.18942,479.214
3.20147,472.219
3.21351,465.854
3.22556,461.079
3.2376,450.998
3.24965,445.764
3.26169,439.192
3.27374,433.69
3.28578,427.07
3.29783,422.176
3.30987,416.262
3.32192,410.968
3.33396,400.373
3.34601,393.312
3.35805,397.715
3.3701,393.588
3.38214,386.224
3.39419,381.403
3.40623,379.062
3.41828,373.768
3.43032,370.517
3.44237,367.896
3.45441,364.72
3.46646,361.222
3.4785,354.263
3.49055,354.057
3.50259,352.24
3.51464,349.439
3.52668,346.074
3.53873,345.049
3.55077,341.04
3.56282,341.351
3.57486,338.561
3.58691,334.951
3.59896,333.525
3.611,330.75
3.62305,330.155
3.63509,325.595
3.64714,327.553
3.65918,324.983
3.67123,323.029
3.68327,323.203
3.69532,320.253
3.70736,319.297
3.71941,318.298
3.73145,317.026
3.7435,316.882
3.75554,316.368
3.76759,313.71
3.77963,313.52
3.79168,313.369
3.80372,311.459
3.81577,310.335
3.82781,309.461
3.83986,308.605
3.8519,309.214
3.86395,307.117
3.87599,308.534
3.88804,306.506
3.90008,305.745
3.91213,306.767
3.92417,304.229
3.93622,302.883
3.94826,303.244
3.96031,303.135
3.97235,303.705
3.9844,302.956
3.99644,302.453
4.00849,301.982
4.02053,301.542
4.03258,301.151
4.04463,300.203
4.05667,299.527
4.06872,300.413
4.08076,298.552
4.09281,297.862
4.10485,297.817
4.1169,297.191
4.12894,296.5
4.14099,297.159
4.15303,296.333
4.16508,297.189
4.17712,295.162
4.18917,294.489
4.20121,296.293
4.21326,303.519
4.2253,292.53
4.23735,291.099
4.24939,291.431
4.26144,291.155
4.27348,291.411
4.28553,289.837
4.29757,289.596
4.30962,290.581
4.32166,288.844
4.33371,287.383
4.34575,292.061
4.3578,287.601
4.36984,287.191
4.38189,288.128
4.39393,286.204
4.40598,285.869
4.41802,286.001
4.43007,284.938
4.44211,285.143
4.45416,284.726
4.4662,283.546
4.47825,283.681
4.4903,283.582
4.50234,283.422
4.51439,283.83
4.52643,282.489
4.53848,280.103
4.55052,279.07
4.56257,279.243
4.57461,278.583
4.58666,279.676
4.5987,277.55
4.61075,276.536
4.62279,277.288
4.63484,275.992
4.64688,275.256
4.65893,274.767
4.67097,274.557
4.68302,273.049
4.69506,272.311
4.70711,271.584
4.71915,270.361
4.7312,270.548
4.74324,269.877
4.75529,268.993
4.76733,267.225
4.77938,268.153
4.79142,266.505
4.80347,266.314
4.81551,265.404
4.82756,263.522
4.8396,263.589
4.85165,262.306
4.86369,262.428
4.87574,260.397
4.88778,262.115
4.89983,260.931
4.91187,259.426
4.92392,259.517
4.93597,256.775
4.94801,256.878
4.96006,257.854
4.9721,255.802
4.98415,255.602
4.99619,252.697
5.00824,249.648
5.02028,242.146
5.02372,230.36