File: APS/data_viewing/WAXS-Control2-3.csv
# #q, WAXS_int
1.46697,1078.5
1.47901,1108.61
1.49106,1127.47
1.5031,1136.43
1.51515,1148.13
1.52719,1157.98
1.53924,1165.92
1.55128,1173.42
1.56333,1186.85
1.57537,1190.85
1.58742,1195.52
1.59946,1204.46
1.61151,1208.12
1.62355,1216.71
1.6356,1224.67
1.64764,1229.91
1.65969,1229.66
1.67173,1235.73
1.68378,1242.49
1.69582,1241.84
1.70787,1247.74
1.71991,1245.19
1.73196,1245.78
1.744,1248.81
1.75605,1247.03
1.76809,1246.01
1.78014,1245
1.79218,1247.34
1.80423,1239.17
1.81628,1235.9
1.82832,1232.64
1.84037,1223.78
1.85241,1218.05
1.86446,1211.57
1.8765,1202.3
1.88855,1193.18
1.90059,1182.19
1.91264,1174.7
1.92468,1160.72
1.93673,1147.75
1.94877,1141.37
1.96082,1123.28
1.97286,1111.18
1.98491,1097.92
1.99695,1088.76
2.009,1074.33
2.02104,1063.68
2.03309,1048.95
2.04513,1036.37
2.05718,1023.7
2.06922,1010.04
2.08127,1001.22
2.09331,984.517
2.10536,977.482
2.1174,957.693
2.12945,951.633
2.14149,938.133
2.15354,928.745
2.16558,918.751
2.17763,907.082
2.18967,896.606
2.20172,886.194
2.21376,876.221
2.22581,866.338
2.23785,856.07
2.2499,847.616
2.26195,838.76
2.27399,833.004
2.28604,820.451
2.29808,814.153
2.31013,807.064
2.32217,800.095
2.33422,791.074
2.34626,786.91
2.35831,777.528
2.37035,772.048
2.3824,767.401
2.39444,762.698
2.40649,752.364
2.41853,716.457
2.43058,751.607
2.44262,740.375
2.45467,736.465
2.46671,729.962
2.47876,724.916
2.4908,721.304
2.50285,715.802
2.51489,712.665
2.52694,709.745
2.53898,702.821
2.55103,702.14
2.56307,700.393
2.57512,694.872
2.58716,692.173
2.59921,688.819
2.61125,687.067
2.6233,684.32
2.63534,683.131
2.64739,681.022
2.65943,677.156
2.67148,673.139
2.68352,675.166
2.69557,670.952
2.70762,668.403
2.71966,668.511
2.73171,664.752
2.74375,661.563
2.7558,660.883
2.76784,657.441
2.77989,656.502
2.79193,652.126
2.80398,653.591
2.81602,650.665
2.82807,643.217
2.84011,645.915
2.85216,643.724
2.8642,638.184
2.87625,636.641
2.88829,632.367
2.90034,627.346
2.91238,624.974
2.92443,619.211
2.93647,613.964
2.94852,611.993
2.96056,607.321
2.97261,602.599
2.98465,594.861
2.9967,591.008
3.00874,586.559
3.02079,581.383
3.03283,575.298
3.04488,567.352
3.05692,560.732
3.06897,554.835
3.08101,548.635
3.09306,543.559
3.1051,536.215
3.11715,528.295
3.12919,523.829
3.14124,514.928
3.15329,508.781
3.16533,501.233
3.17738,494.075
3.18942,487.629
3.20147,482.831
3.21351,475.659
3.22556,468.387
3.2376,462.656
3.24965,455.986
3.26169,450.279
3.27374,443.719
3.28578,437.439
3.29783,433.817
3.30987,427.233
3.32192,422.099
3.33396,413.044
3.34601,404.889
3.35805,409.985
3.3701,405.358
3.38214,399.212
3.39419,394.915
3.40623,391.894
3.41828,387.408
3.43032,382.044
3.44237,381.542
3.45441,378.792
3.46646,374.3
3.4785,367.43
3.49055,367.07
3.50259,365.795
3.51464,362.461
3.52668,360.032
3.53873,358.245
3.55077,356.471
3.56282,355.954
3.57486,350.982
3.58691,349.774
3.59896,347.426
3.611,345.617
3.62305,343.114
3.63509,341.733
3.64714,341.588
3.65918,337.709
3.67123,337.872
3.68327,337.158
3.69532,334.155
3.70736,334.364
3.71941,333.073
3.73145,332.028
3.7435,330.97
3.75554,330.288
3.76759,327.362
3.77963,327.221
3.79168,327.177
3.80372,324.487
3.81577,323.441
3.82781,322.159
3.83986,320.936
3.8519,322.828
3.86395,321.454
3.87599,319.162
3.88804,319.298
3.90008,319.243
3.91213,318.841
3.92417,317.766
3.93622,317.072
3.94826,316.307
3.96031,314.771
3.97235,315.681
3.9844,315.084
3.99644,313.944
4.00849,314.161
4.02053,312.811
4.03258,312.723
4.04463,310.856
4.05667,311.724
4.06872,311.848
4.08076,311.254
4.09281,309.145
4.10485,309.801
4.1169,309.546
4.12894,308.158
4.14099,307.97
4.15303,306.452
4.16508,308.279
4.17712,305.644
4.18917,304.029
4.20121,305.836
4.21326,314.284
4.2253,302.469
4.23735,301.215
4.24939,301.459
4.26144,301.66
4.27348,300.583
4.28553,300.806
4.29757,298.663
4.30962,300.444
4.32166,300.98
4.33371,298.09
4.34575,302.41
4.3578,296.686
4.36984,296.314
4.38189,298.732
4.39393,296.009
4.40598,296.09
4.41802,296.997
4.43007,295.273
4.44211,294.403
4.45416,294.209
4.4662,293.727
4.47825,292.704
4.4903,291.753
4.50234,292.017
4.51439,291.337
4.52643,291.339
4.53848,290.663
4.55052,289.342
4.56257,288.982
4.57461,289.262
4.58666,288.836
4.5987,287.635
4.61075,286.003
4.62279,285.978
4.63484,286.769
4.64688,283.946
4.65893,282.263
4.67097,283.601
4.68302,282.304
4.69506,279.767
4.70711,279.991
4.71915,279.13
4.7312,277.919
4.74324,279.255
4.75529,277.402
4.76733,276.613
4.77938,277.011
4.79142,274.214
4.80347,274.938
4.81551,273.683
4.82756,273.191
4.8396,272.297
4.85165,272.178
4.86369,271.942
4.87574,270.007
4.88778,271.279
4.89983,270.289
4.91187,268.45
4.92392,269.645
4.93597,268.032
4.94801,266.165
4.96006,264.663
4.9721,264.942
4.98415,262.106
4.99619,263.151
5.00824,259.408
5.02028,249.235
5.02372,235.146